t[s] h[m]  P[Pa]  ax[g] alfa[deg] beta[deg] pitch[deg] yaw[deg] rol[deg] 
0.000 -0.000 101325.00 0.985  NaN  NaN 80.000 0.000 0.000
0.001 -0.000 101325.00 0.985  NaN  NaN 80.000 0.000 0.000
0.004 -0.000 101325.00 0.985  NaN  NaN 80.000 0.000 0.000
0.010 -0.000 101325.00 0.985  NaN  NaN 80.000 0.000 0.000
0.016 -0.000 101325.00 0.986  NaN  NaN 80.000 0.000 0.000
0.017 -0.000 101325.00 1.014  NaN  NaN 80.000 0.000 0.000
0.018 0.000 101325.00 1.079  NaN  NaN 80.000 0.000 0.000
0.020 0.000 101325.00 1.199  NaN  NaN 80.000 0.000 0.000
0.023 0.000 101325.00 1.325  NaN  NaN 80.000 0.000 0.000
0.025 0.000 101325.00 1.579  NaN  NaN 80.000 0.000 0.000
0.031 0.000 101325.00 1.995  NaN  NaN 80.000 0.000 0.000
0.042 0.002 101324.98 2.495  NaN  NaN 80.000 0.000 0.000
0.054 0.005 101324.94 3.163  NaN  NaN 80.000 0.000 0.000
0.065 0.011 101324.87 4.165  NaN  NaN 80.000 0.000 0.000
0.087 0.034 101324.60 5.168  NaN  NaN 80.000 0.000 0.000
0.110 0.077 101324.07 6.481  NaN  NaN 80.000 0.000 0.000
0.132 0.148 101323.23 7.324  NaN  NaN 80.000 0.000 0.000
0.143 0.190 101322.72 7.766  NaN  NaN 80.000 0.000 0.000
0.153 0.239 101322.13 7.791  NaN  NaN 80.000 0.000 0.000
0.163 0.294 101321.46 7.860  NaN  NaN 80.000 0.000 0.000
0.183 0.426 101319.88 7.968  NaN  NaN 80.000 0.000 0.000
0.224 0.773 101315.71 8.185  NaN  NaN 80.000 0.000 0.000
0.305 1.809 101303.27 8.444  NaN  NaN 80.000 0.000 0.000
0.386 3.320 101285.12 8.697  NaN  NaN 80.000 0.000 0.000
0.427 4.260 101273.83 8.891  NaN  NaN 80.000 0.000 0.000
0.447 4.778 101267.62 8.973  NaN  NaN 80.000 0.000 0.000
0.457 5.048 101264.37 9.016  NaN  NaN 80.000 0.000 0.000
0.462 5.187 101262.71 9.041  NaN  NaN 80.000 0.000 0.000
0.467 5.327 101261.02 9.053 -20.869 12.360 80.000 -0.000 -0.000
0.470 5.391 101260.26 9.065 -20.719 12.290 80.001 -0.000 -0.000
0.472 5.455 101259.49 9.073 -20.570 12.221 80.002 -0.000 -0.000
0.474 5.519 101258.71 9.084 -20.423 12.153 80.004 -0.000 -0.000
0.479 5.650 101257.15 9.103 -20.131 12.019 80.008 -0.000 -0.001
0.488 5.915 101253.96 9.126 -19.559 11.757 80.022 -0.000 -0.002
0.497 6.188 101250.69 9.171 -19.001 11.505 80.045 -0.000 -0.004
0.515 6.751 101243.92 9.214 -17.926 11.026 80.112 -0.001 -0.010
0.534 7.342 101236.84 9.270 -16.899 10.581 80.214 -0.001 -0.018
0.552 7.958 101229.43 9.323 -15.901 10.165 80.357 -0.002 -0.029
0.568 8.531 101222.56 9.374 -15.033 9.816 80.522 -0.003 -0.040
0.584 9.125 101215.43 9.419 -14.179 9.488 80.723 -0.003 -0.053
0.601 9.740 101208.05 9.463 -13.336 9.178 80.961 -0.004 -0.067
0.617 10.377 101200.40 9.502 -12.502 8.884 81.235 -0.005 -0.084
0.633 11.036 101192.50 9.530 -11.674 8.607 81.549 -0.006 -0.101
0.650 11.717 101184.32 9.541 -10.840 8.344 81.908 -0.006 -0.120
0.664 12.313 101177.16 9.540 -10.128 8.131 82.251 -0.007 -0.136
0.677 12.926 101169.81 9.529 -9.410 7.927 82.629 -0.007 -0.153
0.705 14.200 101154.52 9.510 -7.962 7.544 83.486 -0.006 -0.187
0.730 15.403 101140.10 9.468 -6.635 7.225 84.375 -0.005 -0.218
0.753 16.530 101126.58 9.412 -5.427 6.957 85.264 -0.002 -0.247
0.775 17.701 101112.53 9.346 -4.219 6.704 86.228 0.001 -0.275
0.797 18.916 101097.97 9.269 -3.010 6.465 87.254 0.006 -0.304
0.820 20.174 101082.88 9.188 -1.817 6.239 88.329 0.013 -0.332
0.842 21.476 101067.27 9.108 -0.646 6.023 89.440 0.021 -0.359
0.865 22.823 101051.12 9.056 0.492 5.818 90.566 0.032 -0.385
0.875 23.434 101043.80 9.016 0.976 5.731 91.064 0.037 -0.396
0.885 24.053 101036.38 8.992 1.445 5.645 91.556 0.042 -0.408
0.895 24.682 101028.84 8.955 1.898 5.561 92.040 0.048 -0.419
0.915 25.965 101013.47 8.934 2.750 5.398 92.981 0.061 -0.441
0.934 27.283 100997.68 8.931 3.520 5.241 93.871 0.075 -0.462
0.954 28.636 100981.47 8.964 4.198 5.091 94.697 0.091 -0.483
0.974 30.023 100964.84 9.035 4.767 4.947 95.442 0.107 -0.502
0.994 31.446 100947.80 9.142 5.224 4.808 96.092 0.125 -0.520
1.014 32.903 100930.35 9.376 5.560 4.674 96.635 0.144 -0.536
1.054 35.922 100894.21 9.669 5.848 4.421 97.358 0.186 -0.565
1.094 39.078 100856.43 10.090 5.612 4.183 97.559 0.232 -0.588
1.133 42.373 100817.00 10.451 4.879 3.959 97.228 0.283 -0.606
1.173 45.806 100775.94 10.605 3.729 3.746 96.413 0.340 -0.619
1.193 47.573 100754.80 10.599 3.047 3.644 95.853 0.370 -0.625
1.213 49.375 100733.26 10.540 2.312 3.543 95.217 0.403 -0.630
1.233 51.210 100711.32 10.436 1.548 3.445 94.526 0.437 -0.635
1.253 53.079 100688.98 10.295 0.781 3.348 93.802 0.473 -0.641
1.273 54.980 100666.25 10.127 0.027 3.252 93.069 0.512 -0.646
1.293 56.915 100643.14 10.000 -0.692 3.158 92.343 0.552 -0.651
1.301 57.781 100632.80 9.874 -1.000 3.116 92.026 0.571 -0.653
1.310 58.653 100622.38 9.794 -1.300 3.074 91.713 0.591 -0.655
1.319 59.531 100611.88 9.712 -1.590 3.032 91.407 0.611 -0.657
1.328 60.416 100601.32 9.589 -1.867 2.990 91.108 0.632 -0.659
1.345 62.204 100579.96 9.467 -2.378 2.904 90.545 0.677 -0.663
1.363 64.017 100558.32 9.317 -2.811 2.818 90.042 0.725 -0.667
1.379 65.669 100538.59 9.173 -3.128 2.740 89.656 0.770 -0.671
1.395 67.342 100518.63 8.974 -3.363 2.660 89.342 0.819 -0.674
1.426 70.744 100478.02 8.772 -3.569 2.498 88.972 0.925 -0.681
1.458 74.223 100436.52 8.513 -3.398 2.329 88.975 1.043 -0.688
1.487 77.418 100398.42 8.248 -2.929 2.171 89.306 1.160 -0.693
1.512 80.343 100363.54 7.958 -2.281 2.023 89.851 1.276 -0.698
1.538 83.315 100328.12 7.649 -1.468 1.868 90.590 1.402 -0.703
1.564 86.333 100292.16 7.416 -0.560 1.707 91.462 1.538 -0.708
1.575 87.706 100275.80 7.185 -0.136 1.632 91.881 1.603 -0.710
1.587 89.088 100259.34 7.088 0.287 1.555 92.305 1.670 -0.712
1.593 89.782 100251.08 7.004 0.493 1.516 92.515 1.704 -0.713
1.598 90.478 100242.78 6.954 0.695 1.478 92.722 1.738 -0.714
1.604 91.177 100234.46 6.891 0.891 1.440 92.925 1.772 -0.715
1.616 92.580 100217.75 6.841 1.262 1.363 93.315 1.841 -0.717
1.627 93.993 100200.94 6.790 1.600 1.286 93.678 1.911 -0.719
1.639 95.414 100184.02 6.763 1.901 1.209 94.009 1.981 -0.721
1.650 96.843 100167.01 6.772 2.158 1.132 94.302 2.052 -0.723
1.662 98.280 100149.90 6.806 2.365 1.054 94.550 2.124 -0.725
1.673 99.726 100132.70 6.858 2.521 0.977 94.749 2.197 -0.727
1.685 101.180 100115.40 6.926 2.622 0.900 94.896 2.270 -0.729
1.696 102.642 100098.01 7.038 2.668 0.822 94.989 2.344 -0.730
1.720 105.590 100062.94 7.146 2.595 0.666 95.012 2.494 -0.734
1.743 108.570 100027.51 7.258 2.317 0.510 94.825 2.647 -0.738
1.766 111.581 99991.73 7.296 1.866 0.353 94.453 2.802 -0.741
1.789 114.622 99955.59 7.256 1.300 0.194 93.943 2.961 -0.744
1.810 117.384 99922.77 7.153 0.724 0.051 93.407 3.106 -0.747
1.828 119.891 99893.00 7.008 0.197 -0.074 92.895 3.235 -0.750
1.847 122.416 99863.01 6.894 -0.318 -0.190 92.381 3.359 -0.752
1.856 123.686 99847.93 6.774 -0.569 -0.246 92.128 3.420 -0.754
1.866 124.961 99832.80 6.690 -0.811 -0.302 91.879 3.479 -0.755
1.875 126.240 99817.62 6.604 -1.042 -0.356 91.639 3.538 -0.756
1.884 127.524 99802.39 6.516 -1.258 -0.410 91.411 3.596 -0.757
1.894 128.812 99787.10 6.428 -1.455 -0.463 91.198 3.654 -0.758
1.903 130.105 99771.76 6.342 -1.629 -0.515 91.006 3.711 -0.760
1.912 131.402 99756.37 6.221 -1.780 -0.566 90.836 3.767 -0.761
1.931 134.010 99725.45 6.107 -1.998 -0.665 90.574 3.877 -0.763
1.950 136.635 99694.32 5.958 -2.092 -0.761 90.431 3.984 -0.765
1.969 139.277 99662.99 5.817 -2.045 -0.853 90.424 4.088 -0.768
1.985 141.631 99635.09 5.673 -1.891 -0.931 90.533 4.178 -0.770
2.002 143.999 99607.04 5.536 -1.646 -1.006 90.741 4.264 -0.771
2.017 146.140 99581.67 5.389 -1.353 -1.071 91.005 4.340 -0.773
2.032 148.292 99556.18 5.244 -1.005 -1.133 91.331 4.413 -0.775
2.046 150.454 99530.58 5.099 -0.618 -1.193 91.703 4.484 -0.776
2.061 152.626 99504.86 4.959 -0.207 -1.249 92.107 4.552 -0.778
2.076 154.808 99479.04 4.871 0.212 -1.303 92.524 4.617 -0.780
2.083 155.761 99467.76 4.805 0.388 -1.325 92.704 4.644 -0.780
2.089 156.716 99456.46 4.774 0.558 -1.346 92.878 4.670 -0.781
2.096 157.672 99445.15 4.741 0.720 -1.366 93.047 4.695 -0.782
2.109 159.590 99422.45 4.725 1.019 -1.402 93.362 4.742 -0.783
2.122 161.515 99399.68 4.727 1.274 -1.435 93.637 4.785 -0.784
2.135 163.448 99376.82 4.755 1.476 -1.463 93.865 4.824 -0.786
2.148 165.387 99353.90 4.804 1.620 -1.488 94.038 4.859 -0.787
2.161 167.332 99330.89 4.906 1.703 -1.509 94.152 4.890 -0.788
2.187 171.244 99284.66 5.007 1.683 -1.540 94.197 4.942 -0.791
2.213 175.181 99238.15 5.105 1.434 -1.556 94.011 4.979 -0.793
2.239 179.143 99191.35 5.120 1.004 -1.558 93.634 5.002 -0.795
2.265 183.130 99144.29 5.051 0.475 -1.546 93.137 5.010 -0.798
2.288 186.738 99101.70 4.963 -0.029 -1.524 92.644 5.006 -0.800
2.300 188.550 99080.33 4.860 -0.282 -1.509 92.392 4.999 -0.801
2.311 190.366 99058.91 4.779 -0.526 -1.491 92.144 4.990 -0.802
2.323 192.186 99037.44 4.694 -0.756 -1.470 91.908 4.978 -0.803
2.335 194.011 99015.92 4.605 -0.963 -1.446 91.690 4.962 -0.804
2.346 195.841 98994.35 4.470 -1.143 -1.420 91.497 4.943 -0.805
2.370 199.513 98951.07 4.335 -1.396 -1.356 91.214 4.896 -0.807
2.393 203.202 98907.60 4.167 -1.470 -1.281 91.097 4.836 -0.809
2.413 206.354 98870.48 3.974 -1.386 -1.205 91.145 4.773 -0.810
2.433 209.517 98833.23 3.767 -1.174 -1.120 91.325 4.699 -0.812
2.453 212.691 98795.87 3.563 -0.857 -1.024 91.618 4.615 -0.813
2.471 215.556 98762.15 3.360 -0.504 -0.929 91.957 4.529 -0.814
2.489 218.430 98728.34 3.177 -0.113 -0.824 92.341 4.434 -0.816
2.506 221.311 98694.45 3.060 0.287 -0.710 92.740 4.329 -0.817
2.514 222.552 98679.86 2.969 0.449 -0.660 92.906 4.282 -0.818
2.522 223.794 98665.25 2.927 0.601 -0.609 93.064 4.235 -0.818
2.530 225.037 98650.64 2.881 0.742 -0.557 93.212 4.186 -0.819
2.545 227.528 98621.36 2.855 0.982 -0.452 93.469 4.087 -0.820
2.560 230.023 98592.04 2.840 1.155 -0.344 93.665 3.985 -0.821
2.576 232.523 98562.67 2.849 1.256 -0.233 93.791 3.880 -0.822
2.591 235.027 98533.26 2.867 1.276 -0.120 93.840 3.772 -0.823
2.606 237.535 98503.81 2.872 1.222 -0.005 93.812 3.663 -0.824
2.622 240.047 98474.32 2.859 1.101 0.104 93.715 3.556 -0.825
2.637 242.562 98444.79 2.821 0.920 0.205 93.558 3.456 -0.826
2.653 245.081 98415.23 2.753 0.696 0.298 93.352 3.365 -0.827
2.668 247.604 98385.64 2.658 0.444 0.382 93.113 3.282 -0.828
2.683 250.129 98356.03 2.539 0.177 0.458 92.855 3.206 -0.829
2.699 252.657 98326.39 2.416 -0.089 0.527 92.592 3.138 -0.829
2.713 254.934 98299.69 2.294 -0.326 0.585 92.357 3.080 -0.830
2.725 256.924 98276.36 2.168 -0.520 0.633 92.159 3.033 -0.831
2.737 258.916 98253.02 1.984 -0.697 0.678 91.976 2.988 -0.832
2.761 262.903 98206.31 1.795 -0.972 0.760 91.685 2.908 -0.833
2.785 266.894 98159.57 1.554 -1.106 0.830 91.526 2.839 -0.834
2.807 270.488 98117.50 1.312 -1.090 0.883 91.517 2.787 -0.836
2.829 274.084 98075.42 1.079 -0.944 0.925 91.640 2.745 -0.837
2.850 277.681 98033.34 0.845 -0.684 0.958 91.880 2.714 -0.838
2.872 281.278 97991.28 0.616 -0.343 0.979 92.209 2.694 -0.839
2.894 284.874 97949.24 0.464 0.042 0.989 92.585 2.685 -0.840
2.904 286.492 97930.33 0.343 0.210 0.990 92.755 2.685 -0.841
2.914 288.110 97911.43 0.296 0.368 0.988 92.918 2.688 -0.841
2.923 289.727 97892.53 0.282 0.513 0.984 93.069 2.692 -0.842
2.943 292.960 97854.76 0.292 0.752 0.970 93.322 2.708 -0.843
2.963 296.192 97817.03 0.326 0.904 0.946 93.495 2.734 -0.844
2.982 299.422 97779.33 0.376 0.961 0.914 93.575 2.767 -0.845
3.002 302.649 97741.66 0.425 0.922 0.874 93.560 2.810 -0.846
3.021 305.874 97704.04 0.457 0.797 0.825 93.458 2.860 -0.847
3.041 309.096 97666.46 0.458 0.602 0.769 93.283 2.918 -0.847
3.060 312.316 97628.93 0.427 0.362 0.705 93.057 2.984 -0.848
3.080 315.532 97591.44 0.366 0.099 0.634 92.805 3.057 -0.849
3.100 318.746 97553.99 0.308 -0.158 0.557 92.550 3.138 -0.850
3.109 320.351 97535.29 0.243 -0.283 0.513 92.426 3.182 -0.850
3.119 321.956 97516.60 0.193 -0.400 0.467 92.306 3.229 -0.851
3.129 323.559 97497.93 0.141 -0.509 0.417 92.195 3.280 -0.851
3.139 325.162 97479.27 0.057 -0.606 0.365 92.093 3.334 -0.852
3.158 328.365 97441.99 -0.025 -0.756 0.249 91.934 3.452 -0.853
3.178 331.564 97404.76 -0.117 -0.832 0.120 91.845 3.583 -0.853
3.198 334.758 97367.60 -0.198 -0.829 -0.022 91.835 3.727 -0.854
3.217 337.949 97330.49 -0.275 -0.744 -0.162 91.906 3.874 -0.855
3.235 340.817 97297.14 -0.347 -0.606 -0.285 92.034 4.003 -0.856
3.252 343.682 97263.85 -0.410 -0.420 -0.405 92.212 4.127 -0.856
3.270 346.543 97230.60 -0.464 -0.200 -0.520 92.428 4.248 -0.857
3.288 349.400 97197.40 -0.494 0.038 -0.630 92.663 4.363 -0.858
3.297 350.828 97180.82 -0.505 0.153 -0.682 92.780 4.417 -0.858
3.305 352.255 97164.26 -0.504 0.262 -0.730 92.893 4.469 -0.858
3.314 353.680 97147.70 -0.489 0.364 -0.777 92.999 4.518 -0.859
3.332 356.529 97114.63 -0.462 0.537 -0.861 93.182 4.608 -0.859
3.349 359.374 97081.61 -0.413 0.661 -0.935 93.319 4.687 -0.860
3.367 362.215 97048.65 -0.353 0.729 -0.999 93.402 4.757 -0.861
3.385 365.053 97015.73 -0.260 0.739 -1.053 93.428 4.817 -0.861
3.420 370.716 96950.07 -0.189 0.597 -1.134 93.320 4.909 -0.863
3.455 376.364 96884.62 -0.142 0.297 -1.180 93.049 4.966 -0.864
3.490 381.996 96819.39 -0.141 -0.061 -1.193 92.702 4.990 -0.865
3.506 384.525 96790.11 -0.158 -0.223 -1.189 92.542 4.991 -0.866
3.522 387.051 96760.87 -0.175 -0.372 -1.178 92.392 4.985 -0.866
3.538 389.574 96731.68 -0.209 -0.499 -1.161 92.261 4.973 -0.867
3.570 394.609 96673.44 -0.250 -0.659 -1.108 92.091 4.929 -0.868
3.602 399.632 96615.37 -0.311 -0.662 -1.027 92.072 4.859 -0.869
3.633 404.641 96557.48 -0.370 -0.509 -0.918 92.208 4.759 -0.870
3.662 409.138 96505.53 -0.418 -0.266 -0.794 92.442 4.645 -0.871
3.690 413.625 96453.73 -0.437 0.030 -0.646 92.730 4.508 -0.871
3.703 415.640 96430.47 -0.436 0.158 -0.575 92.862 4.441 -0.872
3.716 417.654 96407.23 -0.423 0.276 -0.501 92.984 4.371 -0.872
3.729 419.665 96384.03 -0.389 0.379 -0.425 93.093 4.300 -0.873
3.755 423.681 96337.70 -0.343 0.529 -0.266 93.257 4.150 -0.873
3.780 427.689 96291.50 -0.273 0.589 -0.099 93.336 3.991 -0.874
3.806 431.687 96245.41 -0.223 0.559 0.074 93.325 3.830 -0.875
3.818 433.484 96224.71 -0.184 0.519 0.145 93.293 3.760 -0.875
3.829 435.279 96204.03 -0.158 0.464 0.213 93.245 3.695 -0.876
3.852 438.864 96162.75 -0.144 0.319 0.335 93.115 3.576 -0.876
3.873 442.084 96125.67 -0.138 0.163 0.431 92.969 3.484 -0.877
3.894 445.299 96088.67 -0.145 0.000 0.514 92.810 3.403 -0.877
3.915 448.508 96051.75 -0.159 -0.158 0.586 92.654 3.334 -0.878
3.936 451.711 96014.90 -0.181 -0.303 0.651 92.511 3.273 -0.879
3.954 454.590 95981.80 -0.210 -0.410 0.702 92.402 3.225 -0.879
3.973 457.464 95948.76 -0.242 -0.485 0.747 92.323 3.184 -0.880
3.992 460.333 95915.78 -0.276 -0.522 0.784 92.280 3.149 -0.880
4.011 463.198 95882.86 -0.312 -0.520 0.815 92.277 3.121 -0.881
4.029 466.059 95850.01 -0.364 -0.477 0.839 92.314 3.101 -0.881
4.067 471.766 95784.47 -0.409 -0.286 0.864 92.494 3.082 -0.882
4.104 477.456 95719.18 -0.448 -0.005 0.859 92.770 3.094 -0.883
4.142 483.128 95654.13 -0.452 0.284 0.821 93.058 3.137 -0.884
4.160 485.957 95621.70 -0.422 0.392 0.792 93.176 3.170 -0.885
4.179 488.782 95589.32 -0.389 0.469 0.756 93.262 3.209 -0.885
4.198 491.602 95557.01 -0.349 0.506 0.714 93.311 3.254 -0.886
4.217 494.418 95524.76 -0.293 0.503 0.666 93.321 3.306 -0.886
4.254 500.036 95460.43 -0.251 0.393 0.553 93.237 3.426 -0.887
4.292 505.636 95396.34 -0.223 0.183 0.417 93.049 3.567 -0.888
4.329 511.219 95332.49 -0.223 -0.059 0.262 92.817 3.733 -0.889
4.348 514.003 95300.65 -0.241 -0.178 0.170 92.701 3.827 -0.889
4.367 516.783 95268.88 -0.263 -0.285 0.069 92.594 3.932 -0.890
4.385 519.559 95237.16 -0.288 -0.372 -0.039 92.505 4.043 -0.890
4.404 522.330 95205.50 -0.314 -0.433 -0.144 92.441 4.155 -0.891
4.423 525.097 95173.90 -0.340 -0.463 -0.247 92.407 4.264 -0.891
4.442 527.860 95142.36 -0.367 -0.461 -0.345 92.406 4.368 -0.892
4.460 530.618 95110.88 -0.393 -0.425 -0.438 92.438 4.468 -0.892
4.479 533.371 95079.46 -0.428 -0.358 -0.526 92.501 4.563 -0.893
4.516 538.866 95016.78 -0.451 -0.153 -0.690 92.700 4.739 -0.893
4.554 544.342 94954.35 -0.459 0.099 -0.834 92.948 4.893 -0.894
4.573 547.074 94923.22 -0.439 0.211 -0.893 93.066 4.960 -0.895
4.591 549.801 94892.15 -0.412 0.304 -0.944 93.167 5.017 -0.895
4.610 552.524 94861.13 -0.379 0.372 -0.986 93.244 5.065 -0.895
4.629 555.242 94830.18 -0.322 0.411 -1.019 93.293 5.105 -0.896
4.666 560.666 94768.44 -0.268 0.401 -1.063 93.304 5.162 -0.897
4.704 566.072 94706.94 -0.209 0.286 -1.077 93.211 5.189 -0.898
4.741 571.460 94645.67 -0.177 0.108 -1.062 93.051 5.187 -0.898
4.779 576.831 94584.63 -0.164 -0.082 -1.021 92.869 5.159 -0.899
4.816 582.185 94523.82 -0.169 -0.260 -0.950 92.703 5.102 -0.900
4.850 586.988 94469.29 -0.190 -0.361 -0.860 92.600 5.024 -0.901
4.884 591.777 94414.94 -0.217 -0.386 -0.744 92.570 4.920 -0.901
4.917 596.552 94360.77 -0.244 -0.331 -0.602 92.621 4.789 -0.902
4.951 601.314 94306.79 -0.268 -0.205 -0.431 92.744 4.631 -0.903
4.985 606.061 94253.00 -0.284 -0.035 -0.231 92.914 4.443 -0.903
5.019 610.794 94199.39 -0.287 0.145 -0.001 93.097 4.232 -0.904
5.036 613.155 94172.65 -0.280 0.221 0.109 93.180 4.126 -0.904
5.052 615.513 94145.96 -0.270 0.285 0.211 93.250 4.027 -0.905
5.069 617.867 94119.32 -0.257 0.330 0.308 93.303 3.935 -0.905
5.086 620.218 94092.72 -0.241 0.357 0.394 93.338 3.851 -0.905
5.103 622.565 94066.16 -0.216 0.364 0.475 93.354 3.774 -0.906
5.137 627.249 94013.20 -0.193 0.325 0.615 93.333 3.641 -0.906
5.170 631.919 93960.41 -0.172 0.226 0.729 93.250 3.535 -0.907
5.204 636.574 93907.80 -0.165 0.091 0.818 93.129 3.454 -0.907
5.238 641.216 93855.38 -0.168 -0.051 0.883 92.995 3.395 -0.908
5.272 645.844 93803.14 -0.180 -0.189 0.932 92.866 3.356 -0.909
5.302 649.998 93756.27 -0.204 -0.281 0.959 92.775 3.336 -0.909
5.332 654.140 93709.56 -0.233 -0.330 0.971 92.725 3.331 -0.910
5.363 658.271 93662.98 -0.264 -0.328 0.967 92.725 3.342 -0.910
5.393 662.391 93616.55 -0.306 -0.275 0.946 92.777 3.370 -0.911
5.454 670.596 93524.13 -0.332 -0.056 0.853 92.993 3.479 -0.912
5.508 677.943 93441.44 -0.342 0.181 0.706 93.231 3.635 -0.913
5.536 681.603 93400.28 -0.323 0.265 0.618 93.327 3.730 -0.913
5.563 685.254 93359.22 -0.300 0.314 0.521 93.387 3.833 -0.913
5.590 688.896 93318.29 -0.276 0.322 0.417 93.409 3.944 -0.914
5.618 692.529 93277.47 -0.253 0.292 0.304 93.391 4.063 -0.914
5.645 696.152 93236.76 -0.234 0.228 0.184 93.341 4.190 -0.915
5.700 703.373 93155.70 -0.227 0.044 -0.074 93.182 4.450 -0.916
5.720 706.030 93125.89 -0.221 -0.029 -0.157 93.114 4.544 -0.916
5.740 708.682 93096.14 -0.222 -0.101 -0.238 93.047 4.632 -0.916
5.760 711.329 93066.45 -0.227 -0.166 -0.313 92.984 4.716 -0.917
5.780 713.972 93036.82 -0.234 -0.222 -0.385 92.931 4.795 -0.917
5.801 716.609 93007.25 -0.250 -0.263 -0.452 92.890 4.870 -0.917
5.841 721.869 92948.31 -0.268 -0.295 -0.572 92.860 5.007 -0.918
5.881 727.110 92889.62 -0.290 -0.254 -0.674 92.901 5.124 -0.918
5.922 732.332 92831.17 -0.306 -0.149 -0.756 93.007 5.222 -0.919
5.962 737.533 92772.97 -0.311 -0.007 -0.817 93.154 5.300 -0.920
6.002 742.716 92715.02 -0.294 0.140 -0.857 93.307 5.355 -0.920
6.043 747.879 92657.31 -0.264 0.237 -0.869 93.423 5.385 -0.921
6.079 752.509 92605.59 -0.227 0.281 -0.861 93.476 5.390 -0.921
6.115 757.123 92554.06 -0.188 0.263 -0.832 93.476 5.376 -0.922
6.152 761.722 92502.73 -0.159 0.197 -0.784 93.427 5.344 -0.922
6.188 766.305 92451.60 -0.140 0.100 -0.720 93.344 5.294 -0.923
6.224 770.872 92400.67 -0.127 -0.009 -0.639 93.245 5.227 -0.923
6.261 775.424 92349.94 -0.124 -0.121 -0.533 93.145 5.139 -0.924
6.297 779.960 92299.40 -0.131 -0.205 -0.408 93.064 5.027 -0.924
6.333 784.481 92249.05 -0.141 -0.254 -0.257 93.018 4.891 -0.925
6.370 788.986 92198.90 -0.158 -0.258 -0.081 93.017 4.731 -0.925
6.406 793.475 92148.95 -0.175 -0.214 0.115 93.063 4.555 -0.925
6.424 795.714 92124.05 -0.195 -0.177 0.208 93.102 4.466 -0.926
6.442 797.949 92099.19 -0.205 -0.131 0.301 93.150 4.379 -0.926
6.460 800.181 92074.38 -0.214 -0.079 0.390 93.206 4.296 -0.926
6.479 802.408 92049.62 -0.222 -0.023 0.476 93.266 4.215 -0.926
6.515 806.851 92000.25 -0.223 0.091 0.640 93.387 4.064 -0.927
6.548 810.836 91955.98 -0.217 0.171 0.765 93.481 3.946 -0.927
6.577 814.413 91916.27 -0.205 0.222 0.865 93.541 3.857 -0.928
6.606 817.979 91876.69 -0.191 0.243 0.949 93.575 3.783 -0.928
